Thermometre :	CX_LS_X121480
Environment :	VA
Date :	02/11/2017
Function :	 logT = Sum ( Ai / logR^i )
Coefficients :	
A0=	305.786765232370440E+0
A1=	-2.211450225797406E+3
A2=	-16.813015364021601E+3
A3=	280.753384944677760E+3
A4=	-1.582718069496755E+6
A5=	4.935960765267556E+6
A6=	-9.358090999646885E+6
A7=	10.782345080147423E+6
A8=	-6.973326229097918E+6
A9=	1.948185771805374E+6
Rmes(Ohm)	Tmes(K)	Tfit(K)	dT(mK)	Courant(A)
6.232704E+1	308.9121	308.9503	-38.1844	1E-4
6.381563E+1	300.9149	300.8946	20.3342	1E-4
6.570352E+1	291.3873	291.3455	41.8133	1E-4
6.806680E+1	280.3030	280.2899	13.1375	1E-4
6.991460E+1	272.2519	272.2475	4.3620	1E-4
7.222890E+1	262.8068	262.8269	-20.1160	1E-4
7.474606E+1	253.2911	253.3111	-19.9644	1E-4
7.789659E+1	242.3182	242.3437	-25.4614	1E-4
8.069459E+1	233.3635	233.3779	-14.3765	1E-4
8.388216E+1	223.9421	223.9444	-2.3239	1E-4
8.744163E+1	214.2815	214.2753	6.2380	1E-4
9.132341E+1	204.6568	204.6382	18.5994	1E-4
9.576393E+1	194.6388	194.6174	21.4432	1E-4
1.002927E+2	185.3639	185.3455	18.3826	1E-4
1.059078E+2	174.9914	174.9797	11.7229	1E-4
1.114231E+2	165.8309	165.8311	-0.2155	1E-4
1.190468E+2	154.5798	154.5881	-8.3269	1E-4
1.260308E+2	145.4745	145.4786	-4.0907	1E-4
1.262794E+2	145.1584	145.1728	-14.3551	1E-4
1.341902E+2	136.0176	136.0261	-8.5143	1E-4
1.344859E+2	135.6963	135.7048	-8.5356	1E-4
1.435179E+2	126.5172	126.5214	-4.1966	1E-4
1.439319E+2	126.1157	126.1277	-12.0311	1E-4
1.558006E+2	115.7190	115.7219	-2.8654	1E-4
1.561725E+2	115.4193	115.4211	-1.8018	1E-4
1.664799E+2	107.6171	107.6163	0.8231	1E-4
1.668821E+2	107.3331	107.3312	1.9329	1E-4
1.862491E+2	95.0690	95.0589	10.1355	1E-4
1.869681E+2	94.6610	94.6523	8.6579	1E-4
1.999270E+2	87.8428	87.8308	12.0401	1E-4
2.003896E+2	87.6149	87.6037	11.1716	1E-4
4.747451E+2	32.0855	32.0827	2.7776	1E-4
2.303042E+2	74.8933	74.8882	5.0905	1E-5
2.307469E+2	74.7256	74.7253	0.3297	1E-5
2.458424E+2	69.5256	69.5288	-3.2059	1E-5
2.461905E+2	69.4116	69.4167	-5.0862	1E-5
3.098805E+2	53.2331	53.2533	-20.1583	1E-5
5.032570E+2	29.8858	29.8866	-0.7728	1E-5
5.046079E+2	29.7892	29.7891	0.1362	1E-5
5.069030E+2	29.6252	29.6247	0.5276	1E-5
5.160187E+2	28.9884	28.9871	1.2568	1E-5
5.309948E+2	27.9925	27.9905	2.0005	1E-5
5.469626E+2	26.9944	26.9922	2.1772	1E-5
5.640739E+2	25.9925	25.9899	2.6471	1E-5
5.822926E+2	24.9948	24.9924	2.3608	1E-5
6.018450E+2	23.9959	23.9947	1.1515	1E-5
6.228912E+2	22.9982	22.9970	1.2413	1E-5
6.456235E+2	21.9993	21.9991	0.2082	1E-5
6.702620E+2	21.0014	21.0015	-0.1165	1E-5
6.971491E+2	20.0002	20.0018	-1.5815	1E-5
7.265012E+2	19.0020	19.0043	-2.2928	1E-5
7.587733E+2	18.0046	18.0072	-2.6239	1E-5
7.945751E+2	17.0055	17.0079	-2.3800	1E-5
8.345037E+2	16.0061	16.0082	-2.0844	1E-5
8.838448E+2	14.9142	14.9156	-1.4493	1E-5
9.350933E+2	13.9221	13.9219	0.1599	1E-5
9.940290E+2	12.9288	12.9271	1.7288	1E-5
1.062588E+3	11.9364	11.9336	2.7888	1E-5
1.143703E+3	10.9439	10.9418	2.0567	1E-5
1.242936E+3	9.9391	9.9414	-2.3383	1E-5
